Time(s),Voltage I/O-1(V)
0.662,-0.0
0.664,-0.0
0.666,-0.0012
0.668,-0.0
0.67,-0.0012
0.6719999999999999,-0.0
0.6739999999999999,-0.0
0.6759999999999999,-0.0012
0.6779999999999999,-0.0
0.6799999999999999,-0.0012
0.6819999999999999,-0.0024
0.6839999999999999,-0.0
0.6859999999999999,-0.0
0.688,-0.0
0.69,-0.0
0.692,-0.0024
0.694,-0.0024
0.696,-0.0024
0.698,-0.0024
0.7,-0.0
0.702,-0.0
0.704,-0.0
0.706,-0.0
0.708,-0.0
0.71,-0.0
0.712,-0.0012
0.714,-0.0012
0.716,-0.0
0.718,-0.0012
0.72,-0.0
0.722,-0.0012
0.724,-0.0012
0.726,-0.0
0.728,-0.0
0.73,-0.0
0.732,-0.0
0.734,-0.0012
0.736,-0.0012
0.738,-0.0012
0.74,-0.0024
0.742,-0.0012
0.744,-0.0012
0.746,-0.0
0.748,0.0012
0.75,-0.0
0.752,-0.0
0.754,-0.0024
0.756,-0.0012
0.758,-0.0
0.76,-0.0024
0.762,-0.0024
0.764,-0.0
0.766,-0.0012
0.768,-0.0
0.77,-0.0
0.772,-0.0024
0.774,-0.0012
0.776,-0.0024
0.778,-0.0
0.78,-0.0
0.782,-0.0012
0.784,-0.0
0.786,-0.0012
0.788,-0.0024
0.79,0.0012
0.792,-0.0024
0.794,-0.0
0.796,-0.0
0.798,-0.0
0.8,-0.0
0.802,-0.0
0.804,-0.0012
0.806,-0.0012
0.808,-0.0024
0.81,0.0024
0.812,-0.0
0.8140000000000001,-0.0012
0.8160000000000001,-0.0
0.8180000000000001,-0.0
0.8200000000000001,-0.0
0.8220000000000001,-0.0012
0.8240000000000001,-0.0012
0.8260000000000001,-0.0012
0.8280000000000001,-0.0012
0.8300000000000001,-0.0012
0.8320000000000001,-0.0
0.8340000000000001,-0.0024
0.8360000000000001,-0.0024
0.8380000000000001,-0.0012
0.8400000000000001,-0.0024
0.8420000000000001,-0.0
0.844,-0.0
0.846,-0.0
0.848,-0.0012
0.85,-0.0024
0.852,-0.0012
0.854,-0.0012
0.856,-0.0012
0.858,-0.0
0.86,-0.0012
0.862,-0.0012
0.864,-0.0
0.866,-0.0037
0.868,-0.0
0.87,-0.0024
0.872,-0.0024
0.874,-0.0
0.876,-0.0
0.878,-0.0024
0.88,-0.0024
0.882,-0.0037
0.884,-0.0024
0.886,-0.0037
0.888,-0.0024
0.89,-0.0024
0.892,-0.0024
0.894,-0.0024
0.896,-0.0024
0.898,-0.0037
0.9,-0.0024
0.902,-0.0037
0.904,-0.0037
0.906,-0.0024
0.9079999999999999,-0.0037
0.9099999999999999,-0.0049
0.9119999999999999,-0.0049
0.9139999999999999,-0.0049
0.9159999999999999,-0.0037
0.9179999999999999,-0.0049
0.9199999999999999,-0.0037
0.9219999999999999,-0.0024
0.9239999999999999,-0.0049
0.9259999999999999,-0.0049
0.9279999999999999,-0.0061
0.9299999999999999,-0.0073
0.9319999999999999,-0.0073
0.9339999999999999,-0.0085
0.9359999999999999,-0.0061
0.938,-0.0073
0.94,-0.0085
0.942,-0.0073
0.944,-0.0085
0.946,-0.0098
0.948,-0.0098
0.95,-0.011
0.952,-0.0122
0.954,-0.0134
0.956,-0.0146
0.958,-0.0134
0.96,-0.0171
0.962,-0.0159
0.964,-0.0171
0.966,-0.0208
0.968,-0.0195
0.97,-0.022
0.972,-0.0256
0.974,-0.0281
0.976,-0.0293
0.978,-0.0317
0.98,-0.033
0.982,-0.0366
0.984,-0.0391
0.986,-0.0415
0.988,-0.0464
0.99,-0.05
0.992,-0.0574
0.994,-0.0647
0.996,-0.0708
0.998,-0.0781
1.0,-0.0842
1.002,-0.0928
1.004,-0.1038
1.006,-0.1135
1.008,-0.1282
1.01,-0.144
1.012,-0.1599
1.014,-0.1782
1.016,-0.199
1.018,-0.2221
1.02,-0.2441
1.022,-0.2685
1.024,-0.2978
1.026,-0.3222
1.028,-0.3454
1.03,-0.3662
1.032,-0.3759
1.034,-0.3808
1.036,-0.3735
1.038,-0.3564
1.04,-0.332
1.042,-0.3003
1.044,-0.2612
1.046,-0.2173
1.048,-0.166
1.05,-0.116
1.052,-0.0586
1.054,0.0012
1.056,0.0623
1.058,0.1294
1.06,0.199
1.062,0.271
1.064,0.3479
1.0659999999999998,0.4272
1.068,0.5102
1.0699999999999998,0.592
1.072,0.6725
1.0739999999999998,0.7482
1.076,0.8141
1.0779999999999998,0.8654
1.08,0.8984
1.0819999999999999,0.9069
1.084,0.8922
1.0859999999999999,0.8532
1.088,0.7909
1.0899999999999999,0.7104
1.092,0.6176
1.0939999999999999,0.5163
1.096,0.4113
1.0979999999999999,0.3027
1.1,0.1953
1.1019999999999999,0.0854
1.104,-0.0244
1.1059999999999999,-0.1379
1.108,-0.2539
1.1099999999999999,-0.3735
1.112,-0.4956
1.1139999999999999,-0.6188
1.116,-0.7372
1.1179999999999999,-0.8483
1.12,-0.9411
1.1219999999999999,-1.0033
1.124,-1.0351
1.126,-1.0229
1.1280000000000001,-0.9752
1.13,-0.8935
1.1320000000000001,-0.7848
1.134,-0.6603
1.1360000000000001,-0.5273
1.138,-0.3857
1.1400000000000001,-0.2466
1.142,-0.105
1.1440000000000001,0.0366
1.146,0.1806
1.1480000000000001,0.3247
1.15,0.4687
1.1520000000000001,0.6127
1.154,0.7568
1.1560000000000001,0.8874
1.158,1.0009
1.1600000000000001,1.0814
1.162,1.1278
1.1640000000000001,1.1339
1.166,1.0973
1.1680000000000001,1.018
1.17,0.9032
1.1720000000000002,0.758
1.174,0.5956
1.1760000000000002,0.4235
1.178,0.2502
1.1800000000000002,0.0757
1.182,-0.1025
1.1840000000000002,-0.2856
1.186,-0.4736
1.188,-0.6713
1.19,-0.8752
1.192,-1.0729
1.194,-1.2499
1.196,-1.3768
1.198,-1.4256
1.2,-1.3829
1.202,-1.2584
1.204,-1.0814
1.206,-0.8776
1.208,-0.6786
1.21,-0.487
1.212,-0.3088
1.214,-0.1404
1.216,0.0232
1.218,0.1831
1.22,0.3491
1.222,0.5249
1.224,0.6957
1.226,0.8044
1.228,-0.3479
1.23,-0.271
1.232,-0.1794
1.234,-0.1745
1.236,-0.1367
1.238,-0.1843
1.24,-0.0745
1.242,-0.0391
1.244,-0.0757
1.246,-0.083
1.248,-0.0232
1.25,-0.0061
1.252,-0.0476
1.254,-0.0
1.256,0.0122
1.258,-0.0085
1.26,-0.011
1.262,0.0049
1.264,0.0122
1.266,0.0012
1.268,0.0098
1.27,0.0208
1.272,0.022
1.274,0.0244
1.276,0.0342
1.278,0.0354
1.28,0.0366
1.282,0.0366
1.284,0.0244
1.286,0.0317
1.288,0.033
1.29,0.0427
1.292,0.0464
1.294,0.0476
1.296,0.05
1.298,0.0488
1.3,0.0488
1.302,0.0513
1.304,0.0574
1.306,0.0586
1.308,0.0574
1.31,0.0623
1.312,0.0647
1.314,0.0684
1.3159999999999998,0.0732
1.318,0.0757
1.3199999999999998,0.0793
1.322,0.0867
1.3239999999999998,0.0891
1.326,0.0806
1.3279999999999998,-0.0122
1.33,-0.0183
1.3319999999999999,-0.0195
1.334,-0.0159
1.3359999999999999,-0.011
1.338,-0.0049
1.3399999999999999,-0.0
1.342,0.0037
1.3439999999999999,0.0061
1.346,0.0085
1.3479999999999999,0.011
1.35,0.011
1.3519999999999999,0.0134
1.354,0.0073
1.3559999999999999,0.0012
1.358,-0.0024
1.3599999999999999,-0.0012
1.362,-0.0
1.3639999999999999,0.0024
1.366,0.0024
1.3679999999999999,0.0024
1.37,0.0012
1.3719999999999999,-0.0
1.374,-0.0
1.376,-0.0
1.3780000000000001,0.0012
1.38,0.0012
1.3820000000000001,-0.0
1.384,0.0012
1.3860000000000001,-0.0012
1.388,-0.0037
1.3900000000000001,-0.0
1.392,-0.0
1.3940000000000001,-0.0
1.396,-0.0
1.3980000000000001,-0.0
1.4,-0.0024
1.4020000000000001,-0.0037
1.404,-0.0012
1.4060000000000001,-0.0012
1.408,-0.0024
1.4100000000000001,-0.0024
1.412,-0.0
1.4140000000000001,-0.0024
1.416,-0.0
1.4180000000000001,-0.0012
1.42,-0.0012
1.4220000000000002,-0.0012
1.424,-0.0
1.4260000000000002,-0.0024
1.428,-0.0
1.4300000000000002,-0.0012
1.432,-0.0
1.4340000000000002,0.0012
1.436,-0.0012
1.438,-0.0
1.44,-0.0
1.442,-0.0012
1.444,0.0012
1.446,-0.0012
1.448,-0.0012
1.45,-0.0012
1.452,-0.0
1.454,-0.0012
1.456,-0.0012
1.458,-0.0
1.46,-0.0
1.462,-0.0012
1.464,0.0012
1.466,-0.0012
1.468,-0.0024
1.47,-0.0024
1.472,-0.0012
1.474,-0.0012
1.476,-0.0012
1.478,-0.0012
1.48,-0.0
1.482,-0.0012
1.484,-0.0
1.486,-0.0
1.488,-0.0024
1.49,-0.0
1.492,-0.0
1.494,-0.0
1.496,-0.0
1.498,-0.0012
1.5,-0.0012
1.502,-0.0
1.504,-0.0
1.506,0.0012
1.508,-0.0
1.51,-0.0
1.512,-0.0
1.514,-0.0
1.516,-0.0
1.518,-0.0
